LabVIEW Measurement	
Writer_Version	2
Reader_Version	2
Separator	Tab
Decimal_Separator	.
Multi_Headings	Yes
X_Columns	No
Time_Pref	Relative
Operator	stud40
Description	Saved t, TC, RISC, PT100
Date	2023/03/21
Time	18:58:06.0343861579895019531
***End_of_Header***	
	
Channels	4				
Samples	240	240	240	240	
Date	2023/03/21	2023/03/21	2023/03/21	2023/03/21	
Time	18:58:06.0343861579895019531	18:58:06.0343861579895019531	18:58:06.0343861579895019531	18:58:06.0343861579895019531	
X_Dimension	Time	Time	Time	Time	
X0	0.0000000000000000E+0	0.0000000000000000E+0	0.0000000000000000E+0	0.0000000000000000E+0	
Delta_X	1.000000	1.000000	1.000000	1.000000	
***End_of_Header***					
X_Value	Untitled	Untitled 1	Untitled 2	Untitled 3	Comment
	0.000000	0.383204	-0.000216	0.098114
	0.500000	0.384165	-0.000110	0.098115
	1.000000	0.383557	9.635764	0.098113
	1.500000	0.383530	9.923970	0.098113
	2.000000	0.383898	0.654824	0.098113
	2.500000	0.384559	-0.000380	0.098115
	3.000000	0.384590	-0.000375	0.098113
	3.500000	0.383930	-0.000301	0.098112
	4.000000	0.383226	-0.000336	0.098116
	4.500000	0.381877	-0.000323	0.098111
	5.000000	0.381368	-0.000285	0.098115
	5.500000	0.379023	-0.000392	0.098112
	6.000000	0.376605	-0.000434	0.098112
	6.500000	0.372756	-0.000458	0.098115
	7.000000	0.370319	-0.000387	0.098112
	7.500000	0.365643	-0.000316	0.098115
	8.000000	0.362389	-0.000423	0.098113
	8.500000	0.357530	-0.000419	0.098116
	9.000000	0.352271	-0.000521	0.098117
	9.500000	0.347753	-0.000434	0.098111
	10.000000	0.342865	-0.000378	0.098115
	10.500000	0.339689	-0.000319	0.098114
	11.000000	0.333086	-0.000275	0.098112
	11.500000	0.330402	-0.000293	0.098114
	12.000000	0.327041	-0.000339	0.098113
	12.500000	0.324020	-0.000322	0.098115
	13.000000	0.320826	-0.000367	0.098117
	13.500000	0.319094	-0.000394	0.098112
	14.000000	0.316918	-0.000379	0.098113
	14.500000	0.314254	-0.000344	0.098112
	15.000000	0.310358	-0.000519	0.098114
	15.500000	0.308983	-0.000165	0.098113
	16.000000	0.307421	-0.000230	0.098111
	16.500000	0.306916	-0.000309	0.098111
	17.000000	0.306211	-0.000321	0.098114
	17.500000	0.304863	-0.000548	0.098110
	18.000000	0.303814	-0.000498	0.098110
	18.500000	0.304012	-0.000495	0.098114
	19.000000	0.303483	-0.000370	0.098111
	19.500000	0.303493	-0.000108	0.098112
	20.000000	0.302270	-0.000215	0.098113
	20.500000	0.301963	-0.000262	0.098112
	21.000000	0.301898	-0.000473	0.098108
	21.500000	0.302481	-0.000434	0.098110
	22.000000	0.302191	-0.000469	0.098109
	22.500000	0.302946	-0.000528	0.098112
	23.000000	0.302738	-0.000553	0.098109
	23.500000	0.303258	-0.000438	0.098107
	24.000000	0.301960	-0.000189	0.098111
	24.500000	0.302452	-0.000273	0.098109
	25.000000	0.302073	-0.000402	0.098109
	25.500000	0.302089	-0.000457	0.098110
	26.000000	0.303335	-0.000422	0.098109
	26.500000	0.302188	-0.000371	0.098111
	27.000000	0.303057	-0.000292	0.098105
	27.500000	0.303271	-0.000485	0.098112
	28.000000	0.303754	-0.000417	0.098109
	28.500000	0.303665	-0.000369	0.098110
	29.000000	0.303882	-0.000413	0.098107
	29.500000	0.303346	-0.000410	0.098108
	30.000000	0.304870	-0.000422	0.098109
	30.500000	0.305339	-0.000501	0.098112
	31.000000	0.305586	-0.000420	0.098108
	31.500000	0.304498	-0.000390	0.098110
	32.000000	0.306383	-0.000450	0.098111
	32.500000	0.306816	-0.000326	0.098107
	33.000000	0.307344	-0.000407	0.098111
	33.500000	0.308620	-0.000441	0.098109
	34.000000	0.309051	-0.000418	0.098108
	34.500000	0.310221	-0.000443	0.098110
	35.000000	0.310494	-0.000426	0.098111
	35.500000	0.311491	-0.000448	0.098107
	36.000000	0.311486	-0.000412	0.098106
	36.500000	0.313108	-0.000421	0.098110
	37.000000	0.313016	-0.000416	0.098111
	37.500000	0.314398	-0.000425	0.098105
	38.000000	0.314976	-0.000457	0.098108
	38.500000	0.315352	-0.000471	0.098108
	39.000000	0.316262	-0.000398	0.098106
	39.500000	0.316441	-0.000480	0.098110
	40.000000	0.317086	-0.000361	0.098108
	40.500000	0.318614	-0.000328	0.098105
	41.000000	0.319819	-0.000445	0.098105
	41.500000	0.319020	-0.000401	0.098108
	42.000000	0.321145	-0.000372	0.098107
	42.500000	0.322264	-0.000303	0.098110
	43.000000	0.321313	-0.000320	0.098109
	43.500000	0.321953	-0.000343	0.098107
	44.000000	0.322572	-0.000286	0.098110
	44.500000	0.324100	-0.000375	0.098107
	45.000000	0.323552	-0.000330	0.098111
	45.500000	0.324337	-0.000382	0.098106
	46.000000	0.324343	-0.000373	0.098109
	46.500000	0.325814	-0.000367	0.098105
	47.000000	0.326332	-0.000297	0.098106
	47.500000	0.328018	-0.000380	0.098106
	48.000000	0.327961	-0.000424	0.098106
	48.500000	0.328978	-0.000303	0.098106
	49.000000	0.328839	-0.000359	0.098110
	49.500000	0.329265	-0.000414	0.098110
	50.000000	0.329863	-0.000308	0.098106
	50.500000	0.331967	-0.000406	0.098105
	51.000000	0.332051	-0.000459	0.098107
	51.500000	0.331943	-0.000337	0.098107
	52.000000	0.333278	-0.000407	0.098107
	52.500000	0.333316	-0.000473	0.098107
	53.000000	0.335312	-0.000463	0.098107
	53.500000	0.335402	-0.000470	0.098110
	54.000000	0.335180	-0.000498	0.098108
	54.500000	0.335809	-0.000428	0.098108
	55.000000	0.337177	-0.000422	0.098106
	55.500000	0.337480	-0.000490	0.098110
	56.000000	0.337321	-0.000461	0.098110
	56.500000	0.338111	-0.000476	0.098109
	57.000000	0.338580	-0.000454	0.098107
	57.500000	0.339087	-0.000536	0.098110
	58.000000	0.339916	-0.000485	0.098104
	58.500000	0.341120	-0.000382	0.098108
	59.000000	0.341415	-0.000512	0.098107
	59.500000	0.343029	-0.000413	0.098109
	60.000000	0.343067	-0.000442	0.098105
	60.500000	0.342714	-0.000478	0.098107
	61.000000	0.342836	-0.000359	0.098107
	61.500000	0.344213	-0.000451	0.098106
	62.000000	0.344721	-0.000225	0.098105
	62.500000	0.343933	-0.000508	0.098105
	63.000000	0.344309	-0.000351	0.098105
	63.500000	0.344866	-0.000458	0.098106
	64.000000	0.345564	-0.000433	0.098108
	64.500000	0.345950	-0.000472	0.098107
	65.000000	0.346297	-0.000509	0.098105
	65.500000	0.346629	-0.000542	0.098108
	66.000000	0.346945	-0.000396	0.098105
	66.500000	0.346013	-0.000456	0.098106
	67.000000	0.348117	-0.000353	0.098109
	67.500000	0.348341	-0.000339	0.098108
	68.000000	0.348740	-0.000402	0.098103
	68.500000	0.349282	-0.000419	0.098107
	69.000000	0.347758	-0.000400	0.098107
	69.500000	0.349274	-0.000405	0.098104
	70.000000	0.349049	-0.000459	0.098106
	70.500000	0.348892	-0.000467	0.098107
	71.000000	0.351180	-0.000500	0.098105
	71.500000	0.351086	-0.000521	0.098103
	72.000000	0.350825	-0.000287	0.098106
	72.500000	0.352397	-0.000212	0.098107
	73.000000	0.352170	-0.000273	0.098108
	73.500000	0.352097	-0.000352	0.098103
	74.000000	0.352682	-0.000532	0.098104
	74.500000	0.354339	-0.000414	0.098105
	75.000000	0.354355	-0.000390	0.098103
	75.500000	0.355551	-0.000390	0.098105
	76.000000	0.355991	-0.000396	0.098107
	76.500000	0.354963	-0.000511	0.098103
	77.000000	0.356332	-0.000405	0.098107
	77.500000	0.356700	-0.000324	0.098105
	78.000000	0.357014	-0.000348	0.098106
	78.500000	0.356517	-0.000309	0.098104
	79.000000	0.356836	-0.000314	0.098104
	79.500000	0.356753	-0.000341	0.098106
	80.000000	0.357747	-0.000436	0.098102
	80.500000	0.357711	-0.000453	0.098104
	81.000000	0.358165	-0.000473	0.098104
	81.500000	0.359189	-0.000459	0.098106
	82.000000	0.359636	-0.000513	0.098107
	82.500000	0.358656	-0.000388	0.098107
	83.000000	0.359693	-0.000458	0.098102
	83.500000	0.359712	-0.000450	0.098103
	84.000000	0.361400	-0.000461	0.098105
	84.500000	0.360807	-0.000441	0.098104
	85.000000	0.361528	-0.000337	0.098102
	85.500000	0.361042	-0.000457	0.098106
	86.000000	0.360183	-0.000386	0.098105
	86.500000	0.359536	-0.000414	0.098102
	87.000000	0.360723	-0.000467	0.098105
	87.500000	0.360620	-0.000155	0.098105
	88.000000	0.361099	-0.000409	0.098105
	88.500000	0.361042	-0.000379	0.098102
	89.000000	0.361674	-0.000319	0.098106
	89.500000	0.361635	-0.000384	0.098108
	90.000000	0.362505	-0.000427	0.098103
	90.500000	0.361851	-0.000342	0.098101
	91.000000	0.363988	-0.000375	0.098103
	91.500000	0.363612	-0.000359	0.098104
	92.000000	0.363582	-0.000375	0.098101
	92.500000	0.364871	-0.000363	0.098101
	93.000000	0.365627	-0.000358	0.098105
	93.500000	0.366295	-0.000493	0.098104
	94.000000	0.364907	-0.000460	0.098103
	94.500000	0.366663	-0.000473	0.098105
	95.000000	0.366374	-0.000453	0.098103
	95.500000	0.365886	-0.000497	0.098102
	96.000000	0.365304	-0.000353	0.098102
	96.500000	0.366393	-0.000399	0.098102
	97.000000	0.366885	-0.000423	0.098100
	97.500000	0.366772	-0.000265	0.098101
	98.000000	0.366263	-0.000509	0.098103
	98.500000	0.366905	-0.000526	0.098100
	99.000000	0.366514	-0.000482	0.098104
	99.500000	0.365515	-0.000427	0.098100
	100.000000	0.365938	-0.000467	0.098100
	100.500000	0.367833	-0.000481	0.098101
	101.000000	0.367764	-0.000398	0.098100
	101.500000	0.367704	-0.000438	0.098103
	102.000000	0.367509	-0.000350	0.098100
	102.500000	0.368035	-0.000339	0.098100
	103.000000	0.367374	-0.000325	0.098099
	103.500000	0.367187	-0.000425	0.098101
	104.000000	0.367425	-0.000380	0.098099
	104.500000	0.366284	-0.000411	0.098104
	105.000000	0.367313	-0.000332	0.098103
	105.500000	0.369445	-0.000329	0.098102
	106.000000	0.368156	-0.000279	0.098104
	106.500000	0.368169	-0.000288	0.098101
	107.000000	0.369335	-0.000225	0.098098
	107.500000	0.368669	-0.000209	0.098100
	108.000000	0.368616	-0.000204	0.098103
	108.500000	0.368715	-0.000221	0.098100
	109.000000	0.370252	-0.000138	0.098100
	109.500000	0.368567	-0.000181	0.098099
	110.000000	0.368652	-0.000313	0.098099
	110.500000	0.370885	-0.000341	0.098101
	111.000000	0.370645	-0.000310	0.098098
	111.500000	0.371009	-0.000335	0.098100
	112.000000	0.370537	-0.000292	0.098096
	112.500000	0.369725	-0.000327	0.098099
	113.000000	0.371809	-0.000323	0.098101
	113.500000	0.371196	-0.000312	0.098102
	114.000000	0.370644	-0.000334	0.098098
	114.500000	0.370732	-0.000315	0.098101
	115.000000	0.370832	-0.000342	0.098099
	115.500000	0.371574	-0.000313	0.098099
	116.000000	0.370393	-0.000519	0.098098
	116.500000	0.371205	-0.000250	0.098101
	117.000000	0.370731	-0.000129	0.098096
	117.500000	0.370847	-0.000302	0.098103
	118.000000	0.370984	-0.000389	0.098102
	118.500000	0.371882	-0.000423	0.098101
	119.000000	0.372255	-0.000392	0.098098
	119.500000	0.372238	-0.000369	0.098101

